File: scraping_pipeline/output/txt/rg/KZ EDX Pro (2 Low-Density Tuning Foams) L.txt
* Measurement data measured by REW V5.20.4
* Source: Input device not selected, no input selected, L, volume: no control
* Format: 256k Log Swept Sine, 1 sweep at -12,0 dBFS with no timing reference
* Dated: 2021-dec-13 17:41:31
* REW Settings:
*  C-weighting compensation: Off
*  Target level: 75.0 dB
* Note: Stock tips M + stock cable 3.5mm  Left  2 Low-density tuning foam
* Measurement: KZ EDX Pro 2low-DensityFoam
* Smoothing: 1/12 octave
* Frequency Step: 1/48 octave
* Start Frequency: 20.300 Hz
*
* Freq(Hz)	SPL(dB)	Phase(degrees)
20.3	150.422	6.6699
20.9	150.396	6.0283
21.4	150.366	5.2185
22	150.342	4.2305
22.7	150.321	3.1019
23.3	150.299	2.2170
24	150.268	1.2917
24.7	150.237	0.3747
25.4	150.202	-0.6066
26.2	150.154	-1.7250
26.9	150.109	-2.6327
27.6	150.058	-3.4850
28.5	149.986	-4.5164
29.5	149.920	-5.6581
30.4	149.874	-6.7418
31.1	149.836	-7.5496
32	149.785	-8.5154
33	149.725	-9.5621
34	149.661	-10.5351
35	149.595	-11.4749
36	149.524	-12.4268
37	149.462	-13.3028
38.2	149.360	-14.1009
39.5	149.239	-14.6938
40.6	149.183	-15.7763
41.8	149.114	-17.1713
43.1	149.036	-18.2126
44.4	148.947	-19.1181
45.5	148.873	-19.9008
46.8	148.789	-20.7852
48.2	148.691	-21.6756
49.4	148.601	-22.4197
50.8	148.498	-23.2470
52.2	148.400	-24.0510
53.8	148.286	-24.9288
55.2	148.182	-25.6784
57	148.047	-26.5977
59	147.896	-27.5524
60.8	147.760	-28.3742
62.2	147.656	-28.9880
64	147.523	-29.7516
66	147.377	-30.5596
68	147.233	-31.3192
70	147.090	-32.0368
72	146.947	-32.7247
74	146.807	-33.3811
76.2	146.657	-34.0537
78.8	146.487	-34.7880
81.2	146.332	-35.4287
83.8	146.165	-36.0798
86.2	146.010	-36.6482
88.5	145.863	-37.1642
91.2	145.687	-37.7200
93.8	145.513	-38.2056
96.2	145.358	-38.6327
98.8	145.192	-39.0791
101.5	145.023	-39.4995
104.4	144.849	-39.9092
107.5	144.669	-40.3060
110.6	144.495	-40.6703
113.8	144.322	-41.0254
117.2	144.140	-41.3607
120.6	143.956	-41.6516
124.1	143.765	-41.9214
126.5	143.634	-42.0765
131.5	143.360	-42.3441
134	143.222	-42.4495
138	143.004	-42.5664
143	142.738	-42.6376
147.5	142.507	-42.6041
152.5	142.269	-42.4687
157.5	142.066	-42.2767
162.5	141.884	-41.9663
167.5	141.723	-41.6542
172.5	141.578	-41.4264
177.5	141.445	-41.2645
182.5	141.319	-41.1690
187.5	141.193	-41.1415
192.5	141.057	-41.1481
197.5	140.908	-41.1558
203	140.736	-41.1740
209	140.548	-41.1188
214	140.390	-40.9977
220	140.201	-40.8263
227	139.985	-40.5778
233	139.805	-40.2972
240	139.602	-39.9011
247	139.405	-39.4520
254	139.221	-38.9425
262	139.029	-38.2885
269	138.883	-37.7064
276	138.756	-37.1810
285	138.604	-36.6857
295	138.424	-36.2361
304	138.254	-35.8197
311	138.121	-35.4415
320	137.951	-34.8993
330	137.769	-34.2635
340	137.594	-33.5760
350	137.428	-32.8149
360	137.272	-32.0176
370	137.134	-31.1971
382	136.987	-30.2552
395	136.842	-29.3027
406	136.724	-28.5333
418	136.597	-27.6849
431	136.468	-26.7673
444	136.349	-25.8304
455	136.257	-25.0153
468	136.152	-24.0503
482	136.045	-23.0101
494	135.959	-22.1157
508	135.862	-21.0685
522	135.770	-20.0214
538	135.675	-18.8413
552	135.600	-17.8047
570	135.514	-16.4681
590	135.431	-14.9848
608	135.375	-13.6615
622	135.346	-12.6490
640	135.325	-11.3610
660	135.311	-9.9602
680	135.305	-8.6162
700	135.306	-7.4011
720	135.296	-6.4412
740	135.213	-5.7352
762	134.960	-4.2879
788	134.759	-0.1582
812	134.940	3.5135
838	135.185	5.9749
862	135.354	7.8273
885	135.501	9.5639
912	135.678	11.5995
938	135.860	13.5477
962	136.032	15.2953
988	136.217	17.0986
1015	136.418	18.8529
1044	136.652	20.5620
1075	136.913	22.1746
1106	137.172	23.5536
1138	137.434	24.7295
1172	137.710	25.7297
1206	137.984	26.5178
1241	138.271	27.1515
1265	138.467	27.5116
1315	138.865	28.1426
1340	139.063	28.4212
1380	139.401	28.8261
1430	139.857	29.2706
1475	140.282	29.5797
1525	140.770	29.7541
1575	141.270	29.6512
1625	141.774	29.1857
1675	142.268	28.3236
1725	142.735	27.0834
1775	143.163	25.5183
1825	143.553	23.6806
1875	143.904	21.6049
1925	144.220	19.3209
1975	144.501	16.8510
2030	144.756	13.9657
2090	144.957	10.7013
2140	145.057	7.9598
2200	145.096	4.7464
2270	145.037	1.2532
2330	144.910	-1.4084
2400	144.689	-4.0260
2470	144.401	-6.0681
2540	144.072	-7.5380
2620	143.683	-8.5687
2690	143.350	-8.9677
2760	143.033	-8.9600
2850	142.658	-8.4566
2950	142.300	-7.3793
3040	142.033	-6.0718
3110	141.863	-4.8898
3200	141.691	-3.2249
3300	141.543	-1.2633
3400	141.406	0.9597
3500	141.347	3.9615
3600	141.478	6.8499
3700	141.674	9.1243
3820	141.952	11.5064
3950	142.340	13.7859
4060	142.743	15.3925
4180	143.257	16.6706
4310	143.899	17.3455
4440	144.637	17.0212
4550	145.300	15.6289
4680	146.043	12.3620
4820	146.666	6.8363
4940	146.946	0.7972
5080	146.901	-6.8426
5220	146.457	-13.8809
5380	145.574	-19.8982
5520	144.594	-22.8762
5700	143.267	-23.0470
5900	142.234	-20.9912
6080	141.385	-19.0706
6220	140.765	-16.3976
6400	140.169	-11.9412
6600	139.813	-6.4538
6800	139.749	-0.9259
7000	139.950	4.3048
7200	140.479	8.7092
7400	141.399	11.3491
7620	142.800	10.4616
7880	144.459	0.8256
8120	144.957	-16.8569
8380	143.651	-35.8014
8620	141.280	-44.1933
8850	138.870	-44.3055
9120	136.539	-38.6946
9380	134.913	-30.4286
9620	133.857	-21.5490
9880	133.091	-11.0435
10150	132.717	0.5710
10440	132.874	13.0175
10750	133.649	25.2107
11060	135.178	35.8291
11380	137.762	42.5435
11720	140.870	37.3651
12060	142.271	13.8477
12410	140.645	-10.4298
12650	138.363	-16.3442
13150	133.799	-9.3224
13400	132.362	-2.0333
13800	131.372	10.3190
14300	132.140	22.8373
14750	133.801	24.6984
15250	134.481	21.1213
15750	136.462	22.4305
16250	136.956	1.4883
16750	135.245	-13.7088
17250	133.122	-17.2833
17750	131.840	-20.0426
18250	130.094	-24.1872
18750	127.518	-21.2711
19250	124.950	-12.9857
19750	122.891	-3.3551