File: scraping_pipeline/output/txt/rg/KZ EDX Pro (Low-Density Tuning Foam) L.txt
* Measurement data measured by REW V5.20.4
* Source: Input device not selected, no input selected, L, volume: no control
* Format: 256k Log Swept Sine, 1 sweep at -12,0 dBFS with no timing reference
* Dated: 2021-dec-13 17:39:37
* REW Settings:
*  C-weighting compensation: Off
*  Target level: 75.0 dB
* Note: Stock tips M + stock cable 3.5mm  Left  Low-density tuning foam
* Measurement: KZ EDX Pro low-DensityFoaml
* Smoothing: 1/12 octave
* Frequency Step: 1/48 octave
* Start Frequency: 20.300 Hz
*
* Freq(Hz)	SPL(dB)	Phase(degrees)
20.3	150.481	6.3921
20.9	150.457	5.7526
21.4	150.428	4.9438
22	150.401	3.9672
22.7	150.374	2.8696
23.3	150.349	1.9789
24	150.316	0.9810
24.7	150.279	0.0108
25.4	150.241	-0.9365
26.2	150.201	-1.9991
26.9	150.164	-2.8948
27.6	150.125	-3.7417
28.5	150.073	-4.8056
29.5	150.004	-5.9837
30.4	149.937	-6.9758
31.1	149.890	-7.7192
32	149.833	-8.6773
33	149.769	-9.7165
34	149.704	-10.6995
35	149.637	-11.6406
36	149.569	-12.5581
37	149.503	-13.4292
38.2	149.413	-14.3645
39.5	149.312	-15.2804
40.6	149.241	-16.2353
41.8	149.159	-17.3182
43.1	149.072	-18.3061
44.4	148.984	-19.2241
45.5	148.912	-19.9794
46.8	148.825	-20.8377
48.2	148.727	-21.7335
49.4	148.642	-22.4845
50.8	148.543	-23.3281
52.2	148.440	-24.1195
53.8	148.321	-24.9823
55.2	148.214	-25.7171
57	148.075	-26.6258
59	147.923	-27.5751
60.8	147.788	-28.3919
62.2	147.684	-29.0105
64	147.551	-29.7602
66	147.402	-30.5424
68	147.255	-31.2927
70	147.111	-32.0081
72	146.967	-32.6888
74	146.825	-33.3222
76.2	146.673	-33.9835
78.8	146.502	-34.7186
81.2	146.347	-35.3689
83.8	146.179	-36.0272
86.2	146.021	-36.5699
88.5	145.873	-37.0309
91.2	145.695	-37.5754
93.8	145.519	-38.1029
96.2	145.362	-38.5335
98.8	145.193	-38.9547
101.5	145.017	-39.3700
104.4	144.836	-39.7492
107.5	144.655	-40.1085
110.6	144.484	-40.4461
113.8	144.311	-40.7504
117.2	144.126	-41.0500
120.6	143.944	-41.3254
124.1	143.763	-41.5594
126.5	143.635	-41.7089
131.5	143.369	-41.9655
134	143.236	-42.0815
138	143.021	-42.2528
143	142.750	-42.3474
147.5	142.507	-42.3517
152.5	142.248	-42.2235
157.5	142.010	-41.8751
162.5	141.817	-41.2332
167.5	141.695	-40.4881
172.5	141.632	-40.1943
177.5	141.562	-40.3815
182.5	141.443	-40.7306
187.5	141.286	-41.0164
192.5	141.111	-41.1648
197.5	140.931	-41.1466
203	140.734	-41.0460
209	140.524	-40.8707
214	140.353	-40.6512
220	140.152	-40.2916
227	139.938	-39.7363
233	139.786	-39.2059
240	139.644	-38.7314
247	139.504	-38.4887
254	139.343	-38.3012
262	139.149	-38.0000
269	138.978	-37.6690
276	138.812	-37.2889
285	138.608	-36.7580
295	138.392	-36.1224
304	138.207	-35.5287
311	138.070	-35.0413
320	137.902	-34.3680
330	137.725	-33.6010
340	137.558	-32.8229
350	137.406	-32.0252
360	137.264	-31.2539
370	137.126	-30.5081
382	136.968	-29.6203
395	136.809	-28.6360
406	136.683	-27.7946
418	136.551	-26.8790
431	136.420	-25.8647
444	136.302	-24.8528
455	136.211	-24.0018
468	136.110	-22.9952
482	136.006	-21.9184
494	135.918	-20.9849
508	135.820	-19.9017
522	135.730	-18.8195
538	135.636	-17.5836
552	135.561	-16.5015
570	135.475	-15.1088
590	135.392	-13.5628
608	135.333	-12.1903
622	135.305	-11.1288
640	135.284	-9.7811
660	135.271	-8.3334
680	135.265	-6.9635
700	135.265	-5.7174
720	135.252	-4.7176
740	135.158	-3.9484
762	134.892	-2.2740
788	134.724	2.1328
812	134.928	5.7301
838	135.167	8.1569
862	135.335	10.0516
885	135.481	11.8555
912	135.657	13.9850
938	135.840	16.0137
962	136.013	17.8243
988	136.199	19.7048
1015	136.400	21.5387
1044	136.635	23.3345
1075	136.896	25.0482
1106	137.152	26.5338
1138	137.410	27.8237
1172	137.684	28.9543
1206	137.959	29.8862
1241	138.245	30.6973
1265	138.440	31.1898
1315	138.838	32.1136
1340	139.040	32.5419
1380	139.384	33.2070
1430	139.852	34.0046
1475	140.295	34.6513
1525	140.810	35.2295
1575	141.345	35.5572
1625	141.895	35.5303
1675	142.449	35.1045
1725	142.990	34.2836
1775	143.507	33.0854
1825	143.999	31.5477
1875	144.465	29.6835
1925	144.907	27.4916
1975	145.320	24.9768
2030	145.722	21.8640
2090	146.075	18.1027
2140	146.287	14.7608
2200	146.433	10.6547
2270	146.452	5.9873
2330	146.354	2.3068
2400	146.125	-1.4167
2470	145.795	-4.4135
2540	145.402	-6.6554
2620	144.928	-8.3550
2690	144.516	-9.1702
2760	144.121	-9.4541
2850	143.654	-9.1733
2950	143.202	-8.2171
3040	142.861	-6.9195
3110	142.640	-5.6966
3200	142.407	-3.9269
3300	142.202	-1.7774
3400	142.032	0.6910
3500	141.958	3.8044
3600	142.051	6.7314
3700	142.200	9.1659
3820	142.431	11.8830
3950	142.785	14.6304
4060	143.176	16.6856
4180	143.693	18.4902
4310	144.360	19.7656
4440	145.149	20.1177
4550	145.891	19.3175
4680	146.778	16.6193
4820	147.599	11.2822
4940	148.048	4.8941
5080	148.155	-3.6882
5220	147.789	-11.9363
5380	146.906	-19.2135
5520	145.877	-22.9732
5700	144.459	-23.6915
5900	143.339	-21.7536
6080	142.461	-19.6391
6220	141.865	-16.8064
6400	141.345	-12.3608
6600	141.098	-7.1739
6800	141.161	-2.2306
7000	141.509	2.1041
7200	142.228	5.1847
7400	143.379	5.4825
7620	144.868	-0.4923
7880	145.789	-18.8360
8120	144.802	-38.8008
8380	142.120	-50.3456
8620	139.314	-50.9258
8850	137.040	-46.2556
9120	135.067	-37.5866
9380	133.747	-27.6040
9620	132.922	-17.6008
9880	132.371	-6.1485
10150	132.205	6.2417
10440	132.587	19.4247
10750	133.664	32.3935
11060	135.661	43.5328
11380	138.893	49.5751
11720	142.346	39.6774
12060	143.241	9.6026
12410	140.689	-13.0673
12650	137.995	-15.4618
13150	133.441	-3.7783
13400	132.239	4.6877
13800	131.710	18.1750
14300	133.223	31.1537
14750	135.613	31.3895
15250	136.816	21.4390
15750	138.336	11.8813
16250	137.522	-11.9007
16750	135.073	-24.7088
17250	132.323	-27.6917
17750	130.057	-25.9917
18250	127.923	-22.5579
18750	125.640	-13.8623
19250	123.657	-2.3336
19750	122.191	8.9946