File: scraping_pipeline/output/csv/rg/KZ EDX Pro (Low-Density Tuning Foam) L.csv
X,Y
20.3,150.481
20.9,150.457
21.4,150.428
22,150.401
22.7,150.374
23.3,150.349
24,150.316
24.7,150.279
25.4,150.241
26.2,150.201
26.9,150.164
27.6,150.125
28.5,150.073
29.5,150.004
30.4,149.937
31.1,149.890
32,149.833
33,149.769
34,149.704
35,149.637
36,149.569
37,149.503
38.2,149.413
39.5,149.312
40.6,149.241
41.8,149.159
43.1,149.072
44.4,148.984
45.5,148.912
46.8,148.825
48.2,148.727
49.4,148.642
50.8,148.543
52.2,148.440
53.8,148.321
55.2,148.214
57,148.075
59,147.923
60.8,147.788
62.2,147.684
64,147.551
66,147.402
68,147.255
70,147.111
72,146.967
74,146.825
76.2,146.673
78.8,146.502
81.2,146.347
83.8,146.179
86.2,146.021
88.5,145.873
91.2,145.695
93.8,145.519
96.2,145.362
98.8,145.193
101.5,145.017
104.4,144.836
107.5,144.655
110.6,144.484
113.8,144.311
117.2,144.126
120.6,143.944
124.1,143.763
126.5,143.635
131.5,143.369
134,143.236
138,143.021
143,142.750
147.5,142.507
152.5,142.248
157.5,142.010
162.5,141.817
167.5,141.695
172.5,141.632
177.5,141.562
182.5,141.443
187.5,141.286
192.5,141.111
197.5,140.931
203,140.734
209,140.524
214,140.353
220,140.152
227,139.938
233,139.786
240,139.644
247,139.504
254,139.343
262,139.149
269,138.978
276,138.812
285,138.608
295,138.392
304,138.207
311,138.070
320,137.902
330,137.725
340,137.558
350,137.406
360,137.264
370,137.126
382,136.968
395,136.809
406,136.683
418,136.551
431,136.420
444,136.302
455,136.211
468,136.110
482,136.006
494,135.918
508,135.820
522,135.730
538,135.636
552,135.561
570,135.475
590,135.392
608,135.333
622,135.305
640,135.284
660,135.271
680,135.265
700,135.265
720,135.252
740,135.158
762,134.892
788,134.724
812,134.928
838,135.167
862,135.335
885,135.481
912,135.657
938,135.840
962,136.013
988,136.199
1015,136.400
1044,136.635
1075,136.896
1106,137.152
1138,137.410
1172,137.684
1206,137.959
1241,138.245
1265,138.440
1315,138.838
1340,139.040
1380,139.384
1430,139.852
1475,140.295
1525,140.810
1575,141.345
1625,141.895
1675,142.449
1725,142.990
1775,143.507
1825,143.999
1875,144.465
1925,144.907
1975,145.320
2030,145.722
2090,146.075
2140,146.287
2200,146.433
2270,146.452
2330,146.354
2400,146.125
2470,145.795
2540,145.402
2620,144.928
2690,144.516
2760,144.121
2850,143.654
2950,143.202
3040,142.861
3110,142.640
3200,142.407
3300,142.202
3400,142.032
3500,141.958
3600,142.051
3700,142.200
3820,142.431
3950,142.785
4060,143.176
4180,143.693
4310,144.360
4440,145.149
4550,145.891
4680,146.778
4820,147.599
4940,148.048
5080,148.155
5220,147.789
5380,146.906
5520,145.877
5700,144.459
5900,143.339
6080,142.461
6220,141.865
6400,141.345
6600,141.098
6800,141.161
7000,141.509
7200,142.228
7400,143.379
7620,144.868
7880,145.789
8120,144.802
8380,142.120
8620,139.314
8850,137.040
9120,135.067
9380,133.747
9620,132.922
9880,132.371
10150,132.205
10440,132.587
10750,133.664
11060,135.661
11380,138.893
11720,142.346
12060,143.241
12410,140.689
12650,137.995
13150,133.441
13400,132.239
13800,131.710
14300,133.223
14750,135.613
15250,136.816
15750,138.336
16250,137.522
16750,135.073
17250,132.323
17750,130.057
18250,127.923
18750,125.640
19250,123.657
19750,122.191