File: scraping_pipeline/output/csv/rg/KZ EDX Pro (2 Low-Density Tuning Foams) L.csv
X,Y
20.3,150.422
20.9,150.396
21.4,150.366
22,150.342
22.7,150.321
23.3,150.299
24,150.268
24.7,150.237
25.4,150.202
26.2,150.154
26.9,150.109
27.6,150.058
28.5,149.986
29.5,149.920
30.4,149.874
31.1,149.836
32,149.785
33,149.725
34,149.661
35,149.595
36,149.524
37,149.462
38.2,149.360
39.5,149.239
40.6,149.183
41.8,149.114
43.1,149.036
44.4,148.947
45.5,148.873
46.8,148.789
48.2,148.691
49.4,148.601
50.8,148.498
52.2,148.400
53.8,148.286
55.2,148.182
57,148.047
59,147.896
60.8,147.760
62.2,147.656
64,147.523
66,147.377
68,147.233
70,147.090
72,146.947
74,146.807
76.2,146.657
78.8,146.487
81.2,146.332
83.8,146.165
86.2,146.010
88.5,145.863
91.2,145.687
93.8,145.513
96.2,145.358
98.8,145.192
101.5,145.023
104.4,144.849
107.5,144.669
110.6,144.495
113.8,144.322
117.2,144.140
120.6,143.956
124.1,143.765
126.5,143.634
131.5,143.360
134,143.222
138,143.004
143,142.738
147.5,142.507
152.5,142.269
157.5,142.066
162.5,141.884
167.5,141.723
172.5,141.578
177.5,141.445
182.5,141.319
187.5,141.193
192.5,141.057
197.5,140.908
203,140.736
209,140.548
214,140.390
220,140.201
227,139.985
233,139.805
240,139.602
247,139.405
254,139.221
262,139.029
269,138.883
276,138.756
285,138.604
295,138.424
304,138.254
311,138.121
320,137.951
330,137.769
340,137.594
350,137.428
360,137.272
370,137.134
382,136.987
395,136.842
406,136.724
418,136.597
431,136.468
444,136.349
455,136.257
468,136.152
482,136.045
494,135.959
508,135.862
522,135.770
538,135.675
552,135.600
570,135.514
590,135.431
608,135.375
622,135.346
640,135.325
660,135.311
680,135.305
700,135.306
720,135.296
740,135.213
762,134.960
788,134.759
812,134.940
838,135.185
862,135.354
885,135.501
912,135.678
938,135.860
962,136.032
988,136.217
1015,136.418
1044,136.652
1075,136.913
1106,137.172
1138,137.434
1172,137.710
1206,137.984
1241,138.271
1265,138.467
1315,138.865
1340,139.063
1380,139.401
1430,139.857
1475,140.282
1525,140.770
1575,141.270
1625,141.774
1675,142.268
1725,142.735
1775,143.163
1825,143.553
1875,143.904
1925,144.220
1975,144.501
2030,144.756
2090,144.957
2140,145.057
2200,145.096
2270,145.037
2330,144.910
2400,144.689
2470,144.401
2540,144.072
2620,143.683
2690,143.350
2760,143.033
2850,142.658
2950,142.300
3040,142.033
3110,141.863
3200,141.691
3300,141.543
3400,141.406
3500,141.347
3600,141.478
3700,141.674
3820,141.952
3950,142.340
4060,142.743
4180,143.257
4310,143.899
4440,144.637
4550,145.300
4680,146.043
4820,146.666
4940,146.946
5080,146.901
5220,146.457
5380,145.574
5520,144.594
5700,143.267
5900,142.234
6080,141.385
6220,140.765
6400,140.169
6600,139.813
6800,139.749
7000,139.950
7200,140.479
7400,141.399
7620,142.800
7880,144.459
8120,144.957
8380,143.651
8620,141.280
8850,138.870
9120,136.539
9380,134.913
9620,133.857
9880,133.091
10150,132.717
10440,132.874
10750,133.649
11060,135.178
11380,137.762
11720,140.870
12060,142.271
12410,140.645
12650,138.363
13150,133.799
13400,132.362
13800,131.372
14300,132.140
14750,133.801
15250,134.481
15750,136.462
16250,136.956
16750,135.245
17250,133.122
17750,131.840
18250,130.094
18750,127.518
19250,124.950
19750,122.891